File: nmf-with-peak-shifting/xrd-segmentations.csv
two_theta,component-0,component-1,component-2,component-3,component-4,component-5,component-6,component-7
0.8,-0.0,0.7698304,0.09338219,-0.0,0.6904225,0.0572512,-0.0,-0.0
0.87232,-0.0,-0.0,0.3487194,-0.0,0.75711,0.00163611,-0.0,0.007191532
0.94464,-0.0,-0.0,0.383654,-0.0,0.7944143,0.0001227754,-0.0,0.009286735
1.01696,-0.0,-0.0,0.374952,-0.0,0.8178255,0.000242494,-0.0,0.009385851
1.08928,-0.0,-0.0,0.369519,-0.0,0.844087,0.00116251,-0.0,0.009909898
1.1616,-0.0,-0.0,0.371296,-0.0,0.870883,0.002222452,-0.0,0.01034983
1.23392,-0.0,-0.0,0.338802,-0.0,0.901017,0.00548646,-0.0,0.004721912
1.30624,-0.0,0.00252184,0.490799,-0.0,0.94653,0.00778524,-0.0,0.005165711
1.37856,-0.0,0.09284502,0.7211676,-0.0,0.9915816,0.0149941,-0.0,0.0220962
1.45088,-0.0,-0.0,0.529105,-0.0,0.9953451,0.00990043,-0.0,0.06437275
1.5232,-0.0,-0.0,0.445235,-0.0,1.02106,0.057326,-0.0,0.039838
1.59552,-0.0,-0.0,0.433524,-0.0,1.07025,0.000144121,-0.0,0.046697
1.66784,-0.0,-0.0,0.420467,-0.0,1.12384,-0.0,-0.0,0.11447
1.74016,-0.0,-0.0,0.362055,-0.0,1.21619,-0.0,-0.0,0.08181067
1.81248,-0.0,-0.0,0.449211,-0.0,1.28008,-0.0,-0.0,0.014843
1.8848,-0.0,-0.0,0.475331,-0.0,1.36941,0.0122138,-0.0,-0.0
1.95712,-0.0,-0.0,0.4583297,-0.0,1.49603,0.0207635,-0.0,-0.0
2.02944,-0.0,-0.0,0.3909221,-0.0,1.67149,-0.0,-0.0,-0.0
2.10176,-0.0,-0.0,0.338371,-0.0,1.85828,-0.0,-0.0,-0.0
2.17408,-0.0,-0.0,0.424925,-0.0,2.077978,-0.0,-0.0,-0.0
2.2464,-0.0,0.2159308,0.819908,-0.0,2.31865,-0.0,-0.0,-0.0
2.31872,-0.0,0.09505723,0.09253835,-0.0,2.56044,0.0137222,-0.0,-0.0
2.39104,-0.0,0.1212209,-0.0,-0.0,2.72777,0.136891,-0.0,0.04625614
2.46336,-0.0,0.250139,-0.0,-0.0,2.786058,0.316114,-0.0,0.158505
2.53568,-0.0,0.285208,-0.0,-0.0,2.73136,0.2635909,-0.0,0.3676535
2.608,-0.0,0.5660192,-0.0,-0.0,3.05529,0.4810688,-0.0,0.321004
2.68032,-0.0,1.9318,0.864723,0.09760205,4.810045,0.6006024,-0.0,0.212135
2.75264,-0.0,2.79023,0.659704,0.06601203,4.864343,0.4927312,-0.0,0.2266202
2.82496,-0.0,0.551062,-0.0,-0.0,2.29874,0.1855285,-0.0,0.239882
2.89728,-0.0,1.16723e-05,-0.0,-0.0,1.2139,0.0695628,-0.0,0.226802
2.9696,-0.0,0.008171728,2.89698e-05,-0.0,0.8889916,0.0923343,-0.0,0.335066
3.04192,-0.0,-0.0,0.000158164,-0.0,0.7384414,0.283167,-0.0,0.4366964
3.11424,-0.0,-0.0,-0.0,-0.0,0.649791,0.194683,-0.0,0.429638
3.18656,-0.0,-0.0,3.04396e-05,-0.0,0.5884027,0.129166,-0.0,0.371174
3.25888,-0.0,-0.0,0.00117192,-0.0,0.550646,0.243099,-0.0,0.3060716
3.3312,-0.0,0.0190265,-0.0,-0.0,0.523477,0.0939489,-0.0,0.3209436
3.40352,-0.0,-0.0,-0.0,-0.0,0.5029868,0.392298,-0.0,0.3636997
3.47584,-0.0,-0.0,-0.0,-0.0,0.4995952,0.5342145,-0.0,0.388282
3.54816,-0.0,-0.0,-0.0,-0.0,0.502705,0.262789,-0.0,0.370419
3.62048,-0.0,-0.0,-0.0,-0.0,0.5068676,0.277005,-0.0,0.3873328
3.6928,-0.0,0.0282073,-0.0,-0.0,0.5040423,0.2933148,-0.0,0.413052
3.76512,-0.0,6.59718e-05,-0.0,-0.0,0.509605,0.179453,-0.0,0.405723
3.83744,-0.0,-0.0,3.33619e-06,-0.0,0.5017182,0.167598,-0.0,0.426573
3.90976,-0.0,-0.0,0.0113687,-0.0,0.49983,0.158144,-0.0,0.5509814
3.98208,-0.0,-0.0,0.04396842,-0.0,0.4957519,0.2693214,-0.0,0.7754
4.0544,-0.0,-0.0,0.02484427,-0.0,0.518819,0.450843,-0.0,0.731416
4.12672,-0.0,-0.0,6.396591e-05,-0.0,0.5482548,0.413246,-0.0,0.8176933
4.19904,-0.0,-0.0,-0.0,-0.0,0.578394,0.75371,-0.0,0.788204
4.27136,-0.0,0.03833608,0.000141763,-0.0,0.645071,0.415509,-0.0,1.107192
4.34368,-0.0,0.0220944,-0.0,-0.0,0.7044866,0.468453,-0.0,1.383581
4.416,-0.0,0.144064,9.103347e-06,-0.0,0.8254477,0.5579453,-0.0,1.17449
4.48832,-0.0,0.00277415,-0.0,-0.0,0.791162,-0.0,-0.0,0.905873
4.56064,-0.0,-0.0,-0.0,-0.0,0.771047,-0.0,-0.0,0.8552304
4.63296,-0.0,-0.0,0.0331873,-0.0,0.841112,0.482516,-0.0,0.9133491
4.70528,-0.0,-0.0,0.33847,-0.0,0.9374993,1.714775,-0.0,0.928479
4.7776,-0.0,0.3103949,0.574661,-0.0,0.982309,0.9492734,-0.0,0.9791122
4.84992,-0.0,0.381101,0.03556158,-0.0,1.05772,0.8721082,-0.0,0.9239078
4.92224,-0.0,0.328414,-0.0,-0.0,1.05587,2.02079,-0.0,1.00457
4.99456,-0.0,0.205731,-0.0,-0.0,1.06042,2.14698,-0.0,1.16346
5.06688,-0.0,0.8445011,0.353686,-0.0,1.4426,1.38044,-0.0,1.72052
5.1392,-0.0,0.8335713,-0.0,-0.0,1.746365,2.15766,-0.0,2.2978
5.21152,0.2836144,-0.0,-0.0,-0.0,1.34827,1.36111,-0.0,1.8574
5.28384,0.0748512,0.04179316,-0.0,-0.0,1.21764,0.277883,-0.0,1.28127
5.35616,-0.0,0.134374,-0.0,-0.0,1.26193,0.5487486,-0.0,1.09866
5.42848,-0.0,0.217966,-0.0,-0.0,1.36143,0.357146,-0.0,1.03152
5.5008,-0.0,0.308261,-0.0,-0.0,1.43341,0.09013513,-0.0,0.993203
5.57312,-0.0,0.397292,-0.0,-0.0,1.49705,0.1279913,-0.0,0.9297789
5.64544,-0.0,0.3878044,-0.0,-0.0,1.57135,0.2779008,-0.0,0.8654773
5.71776,-0.0,0.394259,-0.0,-0.0,1.654614,0.163463,-0.0,0.8095145
5.79008,-0.0,0.430101,-0.0,-0.0,1.73308,0.03607552,-0.0,0.7599818
5.8624,-0.0,0.47186,-0.0,-0.0,1.8064,0.238914,-0.0,0.754937
5.93472,-0.0,0.5084733,-0.0,-0.0,1.87343,0.689348,-0.0,0.763724
6.00704,-0.0,0.3772562,-0.0,-0.0,1.86387,0.9990159,-0.0,0.70226
6.07936,-0.0,0.375711,-0.0,-0.0,1.82213,0.373829,-0.0,0.6728825
6.15168,-0.0,0.3640538,-0.0,-0.0,1.78213,0.1721905,-0.0,0.6589669
6.224,-0.0,0.341328,-0.0,-0.0,1.72001,0.12186,-0.0,0.672082
6.29632,-0.0,0.366284,-0.0,-0.0,1.64696,0.217889,-0.0,0.6241891
6.36864,-0.0,0.359826,1.40206e-05,-0.0,1.58239,0.6330685,-0.0,0.575554
6.44096,-0.0,0.243673,-0.0,-0.0,1.49409,0.636934,-0.0,0.606044
6.51328,-0.0,0.251576,2.6475e-05,-0.0,1.42645,0.295162,-0.0,0.655669
6.5856,-0.0,0.189904,2.24317e-05,-0.0,1.35294,0.352194,-0.0,0.631164
6.65792,-0.0,0.182009,-0.0,-0.0,1.28982,0.264353,-0.0,0.646398
6.73024,-0.0,0.165864,-0.0,-0.0,1.23349,0.2834681,-0.0,0.65496
6.80256,-0.0,0.226096,-0.0,-0.0,1.19588,0.4329782,-0.0,0.5810702
6.87488,-0.0,0.164198,-0.0,-0.0,1.17225,1.112387,-0.0,0.6139355
6.9472,-0.0,0.0125054,-0.0,-0.0,1.11879,2.02311,-0.0,0.6393797
7.01952,-0.0,1.62573e-05,-0.0,-0.0,1.05624,1.83786,-0.0,0.6474731
7.09184,-0.0,0.0573403,-0.0,-0.0,1.02575,0.8876173,-0.0,0.683345
7.16416,-0.0,0.230109,0.192158,-0.0,1.13371,0.5655936,-0.0,0.7674235
7.23648,-0.0,0.7043457,0.43895,-0.0,1.27306,0.110178,-0.0,1.13674
7.3088,-0.0,0.238553,-0.0,-0.0,1.14006,0.03645169,-0.0,0.8959085
7.38112,-0.0,0.06366075,-0.0,-0.0,0.951056,0.247408,-0.0,0.5980582
7.45344,-0.0,0.129197,3.09529e-05,-0.0,0.8741448,0.508276,-0.0,0.5780305
7.52576,-0.0,0.0607955,-0.0,-0.0,0.8434,1.12126,-0.0,0.6007523
7.59808,-0.0,0.019161,4.79723e-05,-0.0,0.81576,0.9288733,-0.0,0.6172246
7.6704,-0.0,0.07051215,-0.0,-0.0,0.797249,0.3842795,-0.0,0.610128
7.74272,-0.0,0.09172997,8.030347e-06,-0.0,0.7947383,0.345258,-0.0,0.6655566
7.81504,-0.0,0.06156279,-0.0,-0.0,0.7773376,0.3791106,-0.0,0.7248182
7.88736,-0.0,0.0338075,-0.0,-0.0,0.756502,0.431569,-0.0,0.6833476
7.95968,-0.0,0.0110232,-0.0,-0.0,0.73766,0.499671,-0.0,0.656853
8.032,-0.0,0.04016219,-0.0,-0.0,0.7243954,0.4007269,-0.0,0.648381
8.10432,-0.0,0.06766152,0.00765297,-0.0,0.729584,0.489655,-0.0,0.6315761
8.17664,-0.0,0.08525514,0.03593302,-0.0,0.7337786,0.622266,-0.0,0.5557312
8.24896,-0.0,0.07883858,-0.0,-0.0,0.737871,0.45492,-0.0,0.477287
8.32128,-0.0,0.08671414,-0.0,-0.0,0.707563,0.3130414,-0.0,0.4805774
8.3936,-0.0,0.08937726,-0.0,-0.0,0.691065,0.656211,-0.0,0.507432
8.46592,-0.0,0.0949549,0.0001021296,-0.0,0.7151009,0.839187,-0.0,0.572904
8.53824,-0.0,0.1094806,-0.0,-0.0,0.685486,0.4146909,-0.0,0.6058897
8.61056,-0.0,0.08860973,-0.0,-0.0,0.663051,0.226486,-0.0,0.5542771
8.68288,-0.0,0.0699768,2.56193e-05,-0.0,0.6284553,0.310736,-0.0,0.499569
8.7552,-0.0,0.07076359,9.92625e-05,-0.0,0.6217394,0.435125,-0.0,0.466777
8.82752,-0.0,0.174467,0.1842959,-0.0,0.6707718,0.435271,-0.0,0.532019
8.89984,-0.0,0.198509,0.01948379,-0.0,0.654329,0.377141,-0.0,0.6066923
8.97216,-0.0,0.08797946,-0.0,-0.0,0.6322041,0.3315,-0.0,0.471858
9.04448,-0.0,0.0441981,-0.0,-0.0,0.591762,0.3129506,-0.0,0.436641
9.1168,-0.0,0.0440779,-0.0,-0.0,0.5771927,0.296837,-0.0,0.440148
9.18912,-0.0,0.04294451,-0.0,-0.0,0.5763757,0.220055,-0.0,0.404509
9.26144,-0.0,0.0320795,-0.0,-0.0,0.575478,0.1910136,-0.0,0.4078725
9.33376,-0.0,0.0484485,-0.0,-0.0,0.574512,0.22759,-0.0,0.4246401
9.40608,-0.0,0.06744323,1.27583e-05,-0.0,0.564391,0.285266,-0.0,0.428364
9.4784,-0.0,0.06716511,0.0257506,-0.0,0.55435,0.323755,-0.0,0.406465
9.55072,-0.0,0.08176567,0.0373876,-0.0,0.549242,0.316771,-0.0,0.402533
9.62304,-0.0,0.07642128,0.00485947,-0.0,0.546338,0.3295316,-0.0,0.4063946
9.69536,-0.0,0.07082832,-0.0,-0.0,0.551393,0.3570253,-0.0,0.409518
9.76768,-0.0,0.06530789,-0.0,-0.0,0.5448281,0.443405,-0.0,0.430479
9.84,-0.0,0.0423027,-0.0,-0.0,0.544291,0.5327535,-0.0,0.430812
9.91232,-0.0,0.04352931,-0.0,-0.0,0.540242,0.4696089,-0.0,0.438001
9.98464,-0.0,0.0195652,0.90876,-0.0,0.561537,0.484699,-0.0,0.5483656